Temperatura [°C],Resistência de decada [$\Omega$],Voltagem [V],Ohmimetro [$\Omega$]
93,15,-0.016,17.4
89,17.2,0.002,19.4
86,18.9,-0.006,21
83,21,-0.003,23
81,22.5,-0.004,24.4
78,24.8,-0.002,26.6
75,26.9,0.002,28.7
73,28.8,-0.001,30.6
70,31,0.002,32.7
67,31.7,0.003,33.4
65,34.2,-0.006,35.9
63,36.6,-0.003,38.2
